#Arquivo Dados/Coleta99.txt 
#Parâmetros(Ocupação: 99.000%, Capacidade: 356363.636 bps)
#Coleta|Ocupação|E(n)|E(w)|lambda|Little

100 96.96343 28.51874 0.28633 99.60000 -0.00000000001098499069
200 97.50995 36.66480 0.36886 99.40000 -0.00000000001163158458
300 97.55144 35.27126 0.35528 99.27667 -0.00000000005849187801
400 97.68118 32.86158 0.33130 99.19000 0.00000000002002309429
500 97.93475 40.33036 0.40591 99.35800 0.00000000007008083003
600 97.79359 43.72750 0.44013 99.35167 0.00000000010572875908
700 98.07523 47.93021 0.48157 99.52857 0.00000000002614086725
800 98.31455 62.99019 0.63098 99.82875 0.00000000020359891550
900 98.47429 63.70225 0.63853 99.76444 0.00000000003428368700
1000 98.53708 62.18485 0.62270 99.86300 -0.00000000010498268921
1100 98.58584 60.56052 0.60585 99.95909 -0.00000000038276937175
1200 98.65589 60.84865 0.60777 100.11833 -0.00000000035183234104
1300 98.62586 61.91748 0.61889 100.04615 -0.00000000070461680934
1400 98.72349 77.09194 0.76973 100.15429 -0.00000000011444001302
1500 98.80897 88.25998 0.88100 100.18133 -0.00000000048990500545
1600 98.87955 91.38473 0.91270 100.12562 -0.00000000034624747514
1700 98.90084 89.47886 0.89347 100.14765 -0.00000000081864470758
1800 98.90174 88.33916 0.88157 100.20667 -0.00000000107286268758
1900 98.93966 87.08962 0.86897 100.22211 -0.00000000117964304991
2000 98.84141 85.18839 0.85043 100.17150 -0.00000000116709486520
2100 98.89655 85.96463 0.85780 100.21524 -0.00000000021240964543
2200 98.88779 86.28425 0.86088 100.22773 -0.00000000018074786112
2300 98.93637 94.47443 0.94278 100.20783 -0.00000000047539572279
2400 98.94035 93.91229 0.93727 100.19750 -0.00000000029574209748
2500 98.90923 91.31860 0.91142 100.19400 -0.00000000037658764995
2600 98.89092 89.22528 0.89085 100.15692 -0.00000000155333168550
2700 98.86969 87.60395 0.87486 100.13481 -0.00000000190512139397
2800 98.83275 85.94267 0.85849 100.10893 -0.00000000070743055858
2900 98.84057 84.51414 0.84436 100.09276 -0.00000000014173906493
3000 98.85434 83.67361 0.83572 100.12100 0.00000000009889333796
3100 98.89123 88.75937 0.88593 100.18774 0.00000000053201176797
3200 98.92595 98.03867 0.97853 100.18937 0.00000000119001697385
3300 98.95824 101.30383 1.01156 100.14576 0.00000000157966439929
3400 98.98907 101.41182 1.01233 100.17647 0.00000000158962620844
3500 99.01607 101.06448 1.00917 100.14657 0.00000000087848661678
3600 99.00219 100.07458 0.99910 100.16444 0.00000000001550404249
3700 99.02922 103.58231 1.03383 100.19297 0.00000000220936158257
3800 99.05466 105.88335 1.05701 100.17289 0.00000000085955775830
3900 99.07898 108.37902 1.08119 100.24026 0.00000000094006225027
4000 99.10222 110.07631 1.09825 100.22900 0.00000000242842190801
4100 99.11353 109.98533 1.09750 100.21439 0.00000000123617382997
4200 99.13474 109.84957 1.09630 100.20000 0.00000000017955414933
4300 99.06756 107.84599 1.07686 100.14837 0.00000000107088737877
4400 99.08017 106.61707 1.06446 100.16091 0.00000000049418247272
4500 99.08217 105.70321 1.05550 100.14511 0.00000000074338402101
4600 99.08550 104.63675 1.04500 100.13087 0.00000000012482814782
4700 99.09553 104.81794 1.04699 100.11362 0.00000000173250214175
4800 99.10285 104.46424 1.04309 100.14896 0.00000000114556542030
4900 99.07138 103.11522 1.02993 100.11837 0.00000000033597302718
5000 99.04220 101.67129 1.01552 100.11780 0.00000000146987133576
5100 99.06137 101.13738 1.01019 100.11725 -0.00000000028609292713
5200 99.07905 102.52195 1.02396 100.12288 -0.00000000234703634305
5300 99.08229 101.60583 1.01508 100.09660 -0.00000000260536126007
5400 99.06454 100.82049 1.00738 100.08167 -0.00000000346408057794
5500 99.02306 99.45000 0.99401 100.04964 -0.00000000099737462733
5600 99.02873 99.25631 0.99179 100.07786 -0.00000000042430770009
5700 99.04574 100.27410 1.00210 100.06421 0.00000000075084471973
5800 99.06188 100.98670 1.00921 100.06466 0.00000000292493496090
5900 99.07777 103.81640 1.03718 100.09525 0.00000000499795760334
6000 99.09316 108.35383 1.08235 100.10983 0.00000000712370251676
6100 99.10824 109.27292 1.09190 100.07623 0.00000000643453290650
6200 99.09985 108.13882 1.08046 100.08613 0.00000000457016824384
6300 99.10115 106.95466 1.06851 100.09746 0.00000000510252107233
6400 99.08557 105.72657 1.05633 100.08891 0.00000000517677278822
6500 99.06956 104.56847 1.04482 100.08231 0.00000000511045072926
6600 99.08402 105.16519 1.05065 100.09530 0.00000000617596640495
6700 99.07383 104.48457 1.04417 100.06493 0.00000000238875941250
6800 99.03946 103.26370 1.03200 100.06132 0.00000000363441188256
6900 99.05047 102.75421 1.02667 100.08449 0.00000000648022080441
7000 99.04466 102.05407 1.01989 100.06414 0.00000000679077061250
7100 99.03596 101.00073 1.00933 100.06662 0.00000000737713889976
7200 99.02874 99.93222 0.99860 100.07236 0.00000000869826521921
7300 99.03729 99.91671 0.99829 100.08808 0.00000001041512120992
7400 99.05029 101.31612 1.01235 100.08041 0.00000000710336678367
7500 99.06326 102.78877 1.02694 100.09253 0.00000000600762462000
7600 99.06989 102.54130 1.02459 100.08066 0.00000000853088977237
7700 99.03737 101.47203 1.01387 100.08338 0.00000000541301403700
7800 99.01782 100.67127 1.00590 100.08038 0.00000000567050051359
7900 99.01064 99.89411 0.99823 100.07139 0.00000000903176555767
8000 99.01657 99.20680 0.99128 100.07950 0.00000000725503923604
8100 99.02869 98.68174 0.98590 100.09346 0.00000000835731839288
8200 99.03872 98.77189 0.98674 100.09951 0.00000000881941275566
8300 99.04284 98.54649 0.98450 100.09771 0.00000000869852101459
8400 99.03944 97.90489 0.97806 100.10143 0.00000000800216071184
8500 99.04295 97.43715 0.97349 100.09012 0.00000000752497442136
8600 99.02681 96.55459 0.96476 100.08174 0.00000000778864261974
8700 99.01955 95.83489 0.95772 100.06598 0.00000000754469908770
8800 99.01790 95.07731 0.95009 100.07227 0.00000001038939956288
8900 98.99088 94.25950 0.94207 100.05573 0.00000000823622769985
9000 98.99194 93.65406 0.93600 100.05822 0.00000000704467595369
9100 98.98740 93.04669 0.92994 100.05692 0.00000000790770116055
9200 98.98368 92.55180 0.92497 100.05902 0.00000001073254907169
9300 98.98069 91.95666 0.91905 100.05645 0.00000000630254248790
9400 98.97192 91.23006 0.91177 100.05819 0.00000000357691476438
9500 98.97644 90.86446 0.90806 100.06463 -0.00000000244641285008
9600 98.98587 90.66478 0.90603 100.06833 -0.00000000452814674645
9700 98.97988 90.13552 0.90088 100.05227 -0.00000000831579427540
9800 98.96110 89.50465 0.89473 100.03592 -0.00000000726902271708
9900 98.96736 89.21795 0.89189 100.03283 -0.00000000857252757669
10000 98.95778 88.76984 0.88737 100.03750 -0.00000000337773542469
10100 98.95115 88.20670 0.88177 100.03327 -0.00000000877298589330
10200 98.95740 88.36532 0.88329 100.04059 -0.00000001043834174652
10300 98.96420 88.67584 0.88624 100.05835 -0.00000001381334868711
10400 98.97414 89.50314 0.89444 100.06663 -0.00000001712534469789
10500 98.98412 90.69253 0.90629 100.06962 -0.00000001768017909853
10600 98.98436 90.31718 0.90260 100.06387 -0.00000001766707669049
10700 98.99383 90.97469 0.90907 100.07421 -0.00000001732927046305
10800 99.00129 91.37151 0.91308 100.06963 -0.00000001243698477538
10900 98.98145 90.75781 0.90700 100.06321 -0.00000001452013975722
11000 98.99059 91.28350 0.91207 100.08364 -0.00000001096833557312
11100 98.99972 92.39560 0.92313 100.08910 -0.00000001094734614071
11200 98.98243 92.02905 0.91962 100.07330 -0.00000001381093284181
11300 98.99168 91.80124 0.91731 100.07646 -0.00000001498992219240
11400 98.99447 91.48429 0.91420 100.07079 -0.00000001421688011760
11500 98.99779 91.44310 0.91390 100.05852 -0.00000001870861865427
11600 98.97282 90.84449 0.90806 100.04190 -0.00000001983499942071
11700 98.97157 90.46739 0.90434 100.03735 -0.00000001933088356054
11800 98.97803 91.54520 0.91501 100.04822 -0.00000001973641872155
11900 98.98662 92.85252 0.92795 100.06168 -0.00000001836323804127
12000 98.99513 95.32609 0.95262 100.06767 -0.00000001548721684230
12100 99.00355 97.36634 0.97292 100.07653 -0.00000001642922597966
12200 99.01157 97.99115 0.97917 100.07557 -0.00000001271962446481
12300 99.01343 97.50578 0.97428 100.08016 -0.00000001113663472552
12400 99.00197 96.99199 0.96915 100.07903 -0.00000001131429883117
12500 98.99845 96.52451 0.96459 100.06792 -0.00000000957436441240
12600 98.98957 96.12088 0.96060 100.06381 -0.00000000738485539387
12700 98.98296 95.57306 0.95517 100.05866 -0.00000000630005558833
12800 98.98314 95.38130 0.95331 100.05305 -0.00000000892738682978
12900 98.98934 95.20465 0.95152 100.05496 -0.00000000852990922340
13000 98.98701 94.88956 0.94837 100.05523 -0.00000000867473204380
13100 98.99251 95.30531 0.95233 100.07573 -0.00000000870350902460
13200 98.98808 94.96380 0.94895 100.07242 -0.00000001154556628080
13300 98.99373 94.54362 0.94469 100.07910 -0.00000001087128964627
13400 98.98473 94.01637 0.93941 100.08067 -0.00000001477278033235
13500 98.98935 93.85379 0.93779 100.07985 -0.00000001999080723181
13600 98.99655 93.87099 0.93790 100.08625 -0.00000001583454434240
13700 98.99946 93.98834 0.93910 100.08372 -0.00000000955822088144
13800 98.99426 93.83828 0.93752 100.09239 -0.00000001967367779798
13900 99.00117 94.00308 0.93918 100.09094 -0.00000001523928006009
14000 98.98327 93.46466 0.93381 100.08914 -0.00000001639409674681
14100 98.97599 93.22086 0.93142 100.08489 -0.00000001448400155368
14200 98.98305 94.72577 0.94634 100.09725 -0.00000001196360699396
14300 98.99012 96.23205 0.96131 100.10483 -0.00000001161757268164
14400 98.99718 97.62079 0.97512 100.11174 -0.00000001339365951480
14500 99.00407 98.57303 0.98469 100.10552 -0.00000001934199644893
14600 99.00104 98.20307 0.98109 100.09603 -0.00000002023493550496
14700 98.98466 97.66658 0.97578 100.09116 -0.00000001752330547333
14800 98.97981 97.46827 0.97385 100.08588 -0.00000001798677828901
14900 98.97900 97.01310 0.96929 100.08631 -0.00000001979876174119
15000 98.97438 96.74656 0.96660 100.08940 -0.00000002402381937827
15100 98.97620 96.62746 0.96540 100.09020 -0.00000002439577428959
15200 98.98307 97.15105 0.97071 100.08283 -0.00000001682035133399
15300 98.97690 96.71369 0.96640 100.07601 -0.00000001818180805913
15400 98.97312 96.28105 0.96208 100.07636 -0.00000001705329566448
15500 98.97636 96.34007 0.96268 100.07439 -0.00000001961900863989
15600 98.98279 96.47181 0.96397 100.07788 -0.00000002161058887395
15700 98.98933 97.14205 0.97059 100.08510 -0.00000002169750246139
15800 98.99567 97.40911 0.97323 100.08829 -0.00000002217531402948
15900 98.99505 97.10394 0.97020 100.08635 -0.00000001706722230210
16000 98.99732 96.97366 0.96887 100.08994 -0.00000001373999225507
16100 99.00375 97.08189 0.96989 100.09596 -0.00000001338250399385
16200 99.00167 96.70043 0.96599 100.10469 -0.00000001164474383586
16300 98.98820 96.35048 0.96257 100.09712 -0.00000001360682233553
16400 98.98556 95.97540 0.95882 100.09732 -0.00000001538558080938
16500 98.99081 95.84586 0.95747 100.10297 -0.00000001392393755850
16600 98.99690 96.03228 0.95923 100.11434 -0.00000001562925433518
16700 99.00289 96.50185 0.96388 100.11826 -0.00000002513435504170
16800 99.00468 96.50746 0.96388 100.12357 -0.00000002077948124679
16900 99.01058 97.99442 0.97868 100.12911 -0.00000001708116315058
17000 99.01646 100.14914 1.00020 100.12947 -0.00000002815535538048
17100 99.02208 101.12880 1.01002 100.12532 -0.00000002546251209878
17200 99.02778 102.04468 1.01917 100.12483 -0.00000002982606872592
17300 99.03341 102.45899 1.02339 100.11723 -0.00000002215338668066
17400 99.03913 102.73086 1.02612 100.11598 -0.00000001795071113975
17500 99.04449 103.46065 1.03337 100.11977 -0.00000001664133719714
17600 99.04789 103.33807 1.03215 100.11903 -0.00000001331342502908
17700 99.04912 103.02949 1.02898 100.12791 -0.00000001136481841968
17800 99.04776 102.78675 1.02659 100.12410 -0.00000001433315333088
17900 99.04786 102.51097 1.02382 100.12570 -0.00000000910628727979
18000 99.05147 102.31499 1.02188 100.12411 -0.00000001163093088508
18100 99.05683 102.52785 1.02408 100.11696 -0.00000001382278469464
18200 99.05201 102.19042 1.02069 100.11923 -0.00000000780089237651
18300 99.03632 101.78049 1.01662 100.11694 -0.00000000893227536380
18400 99.03325 101.40045 1.01275 100.12391 -0.00000000969963309672
18500 99.03843 101.54888 1.01415 100.13168 -0.00000000669466260206
18600 99.04370 101.67002 1.01533 100.13446 -0.00000000748291029140
18700 99.04073 101.40771 1.01274 100.13230 -0.00000000680691414345
18800 99.03675 101.07528 1.00951 100.12309 0.00000000568270763779
18900 99.04186 101.22666 1.01093 100.13254 0.00000000363390029179
19000 99.02293 100.84049 1.00719 100.12016 0.00000000702658553564
19100 99.02815 101.17714 1.01046 100.13021 0.00000001443542885227
19200 99.03180 101.11701 1.00980 100.13552 0.00000002215902838998
19300 99.03647 101.25081 1.01114 100.13554 0.00000001794268200683
19400 99.03670 100.95983 1.00819 100.13938 0.00000003203220444448
19500 99.02121 100.56983 1.00436 100.13308 0.00000003663990355562
19600 99.01433 100.26209 1.00136 100.12612 0.00000003762781375372
19700 99.01463 100.10053 0.99974 100.12640 0.00000002817934330324
19800 99.00204 99.71794 0.99602 100.11662 0.00000002058575887531
19900 98.98071 99.29003 0.99183 100.10799 0.00000001977689123578
20000 98.98360 99.06570 0.98962 100.10430 0.00000000995127891201
20100 98.98319 98.77662 0.98679 100.09915 0.00000000359831631158
20200 98.98605 98.83701 0.98745 100.09297 0.00000001626492007745
20300 98.97786 98.64540 0.98561 100.08542 0.00000000853148662827
20400 98.97537 98.42047 0.98333 100.08902 0.00000001742716904118
20500 98.98029 98.70943 0.98609 100.10137 0.00000003368583634256
20600 98.98423 98.89845 0.98803 100.09689 0.00000004121473295982
20700 98.98321 98.78893 0.98692 100.09807 0.00000003873262244269
20800 98.98813 99.20712 0.99106 100.10188 0.00000003677850202166
20900 98.98104 99.24448 0.99147 100.09866 0.00000003573231310838
21000 98.98542 99.09414 0.98997 100.09805 0.00000002446429903102
21100 98.97270 98.73506 0.98650 100.08645 0.00000003247922109040
21200 98.97028 98.57890 0.98498 100.08245 0.00000003369935086539
21300 98.96518 98.22415 0.98148 100.07709 0.00000003475845744561
21400 98.96541 98.43310 0.98353 100.08140 0.00000003329758158088
21500 98.97018 99.68169 0.99591 100.09140 0.00000002530514109367
21600 98.97493 100.82428 1.00734 100.08981 0.00000003171706453031
21700 98.97975 102.23961 1.02151 100.08677 0.00000003145254368064
21800 98.98436 102.46781 1.02389 100.07725 0.00000002958293521260
21900 98.98911 102.26713 1.02185 100.08005 0.00000002249906572160
22000 98.98610 101.99086 1.01911 100.07845 0.00000002948981148165
22100 98.98825 101.95404 1.01883 100.07014 0.00000002197569415330
22200 98.98982 101.69210 1.01622 100.06896 0.00000001974525787318
22300 98.98881 101.42764 1.01354 100.07220 0.00000002365993623243
22400 98.98273 101.14206 1.01077 100.06455 0.00000001765968704603
22500 98.97515 100.81806 1.00754 100.06320 0.00000002348333794089
22600 98.97416 100.62417 1.00565 100.05898 0.00000002534193299653
22700 98.97281 100.31966 1.00258 100.06128 0.00000001660710324813
22800 98.97732 100.37731 1.00312 100.06526 0.00000001009084371617
22900 98.98190 100.36964 1.00304 100.06533 0.00000000902797125946
23000 98.98098 100.18988 1.00128 100.06196 0.00000001145757266841
23100 98.97798 99.89755 0.99838 100.05987 0.00000000943218481098
23200 98.97309 99.66657 0.99604 100.06254 0.00000000455173676528
23300 98.97095 99.42168 0.99358 100.06408 0.00000001302822738580
23400 98.97409 99.36647 0.99300 100.06739 0.00000000531908028734
23500 98.97858 99.42140 0.99350 100.07187 0.00000000558401325179
23600 98.98279 99.62536 0.99553 100.07318 0.00000001276883665469
23700 98.98707 100.40351 1.00326 100.07709 0.00000001044780617576
23800 98.99136 101.47976 1.01395 100.08395 0.00000000728242355308
23900 98.99555 102.36098 1.02279 100.07967 0.00000000654554810353
24000 98.99975 102.56128 1.02480 100.07975 -0.00000000011144152268
24100 99.00305 102.42168 1.02339 100.08062 0.00000000461962201825
24200 99.00671 102.65431 1.02566 100.08628 0.00000000221443485771
24300 99.00887 102.67881 1.02598 100.07918 0.00000000174250658347
24400 99.00775 102.42509 1.02346 100.07775 -0.00000000017003287667
24500 99.00289 102.09981 1.02023 100.07535 0.00000000016967760530
24600 99.00131 101.89795 1.01826 100.07073 0.00000000673260558415
24700 98.99322 101.59881 1.01534 100.06340 -0.00000000172059344550
24800 98.98525 101.30793 1.01246 100.06101 -0.00000000076019546214
24900 98.98659 101.19626 1.01140 100.05610 0.00000000202808791983
25000 98.98538 100.93188 1.00878 100.05356 -0.00000000048341064485
25100 98.98618 100.77760 1.00727 100.05028 -0.00000000088287777089
25200 98.98811 100.60976 1.00559 100.05028 0.00000000107949915673
25300 98.99203 100.50734 1.00459 100.04806 0.00000000188468618489
25400 98.99197 100.30147 1.00254 100.04693 0.00000000071764816312
25500 98.99591 100.34109 1.00297 100.04376 -0.00000000363594665487
25600 98.99988 100.81406 1.00764 100.04941 -0.00000000983601466942
25700 99.00232 101.00199 1.00957 100.04482 -0.00000000383670339943
25800 99.00204 100.81594 1.00770 100.04570 -0.00000000385060161534
25900 98.99645 100.56109 1.00522 100.03907 -0.00000000820654122435
26000 98.99120 100.28999 1.00253 100.03723 -0.00000000781696485319
26100 98.99509 100.56213 1.00520 100.04142 -0.00000001284030304305
26200 98.99491 100.52852 1.00485 100.04321 -0.00000000995777327262
26300 98.99320 100.41718 1.00379 100.03821 -0.00000000824067569738
26400 98.99465 100.20250 1.00162 100.04080 -0.00000000193604421383
26500 98.99445 100.04958 1.00007 100.04279 -0.00000001453662434869
26600 98.99631 100.11006 1.00069 100.04098 0.00000000775877140313
26700 98.99856 100.12720 1.00086 100.04165 -0.00000000720744708360
26800 98.99129 99.93757 0.99897 100.04030 0.00000000611558448327
26900 98.98411 99.68105 0.99643 100.03810 0.00000002642052265855
27000 98.98794 99.73052 0.99692 100.03841 0.00000001580791320066
27100 98.98895 99.70667 0.99670 100.03701 0.00000000177774950316
27200 98.99187 99.73361 0.99693 100.04081 0.00000001175597219572
27300 98.99566 99.72631 0.99685 100.04139 0.00000001323782328200
27400 98.99199 99.55928 0.99518 100.04120 0.00000001933391047260
27500 98.99249 99.46331 0.99420 100.04360 0.00000002382192576533
27600 98.99622 99.73774 0.99688 100.04946 0.00000002318509473298
27700 98.99980 100.46102 1.00411 100.04996 0.00000002039924140718
27800 99.00341 101.01078 1.00964 100.04658 0.00000001718048281418
27900 99.00152 100.88429 1.00844 100.03989 0.00000000384991949431
28000 99.00492 100.82839 1.00789 100.03889 0.00000000272106603916
28100 99.00844 100.74372 1.00701 100.04206 0.00000000218597051571
28200 99.01039 100.61337 1.00571 100.04202 0.00000001041470909513
28300 99.00902 100.44911 1.00408 100.04134 0.00000001434121088550
28400 99.01245 100.80502 1.00758 100.04641 0.00000000779384379257
28500 99.01591 100.98977 1.00941 100.04853 0.00000000238314612488
28600 99.01517 100.91802 1.00870 100.04724 -0.00000000047162984629
28700 99.01609 100.79439 1.00747 100.04714 -0.00000000593323079556
28800 99.01952 100.74848 1.00698 100.05056 -0.00000000780102027420
28900 99.02122 100.58345 1.00530 100.05291 -0.00000000318981108194
29000 99.02458 100.72784 1.00671 100.05621 -0.00000000836253377656
29100 99.02791 100.98044 1.00921 100.05887 -0.00000001505429736426
29200 99.03123 101.21182 1.01154 100.05716 -0.00000002868426918212
29300 99.02732 101.05718 1.01004 100.05276 -0.00000002099410778555
29400 99.03032 100.96174 1.00908 100.05327 -0.00000001532029614282
29500 99.03361 100.92338 1.00873 100.04959 -0.00000000933530941438
29600 99.02694 100.66001 1.00612 100.04767 -0.00000000359240459602
29700 99.02317 100.46507 1.00417 100.04798 -0.00000000816405076876
29800 99.02591 100.33065 1.00281 100.05000 -0.00000002094007811593
29900 99.02291 100.12756 1.00080 100.04796 -0.00000002323726278064
30000 99.01647 99.85158 0.99807 100.04433 -0.00000002421255373974
30100 99.01471 99.63996 0.99596 100.04449 -0.00000001958248674327
30200 99.00503 99.38268 0.99340 100.04281 -0.00000002446098790188
